 HIRAC    CNTNM    EMISS     PLOT     IATM      IOD    XSECT     ISPD     IBRD
    1        1        1        1        1        0        0        0        0





0*********** BOUNDARY PROPERTIES ***********
0 TBOUND   =     290.0000     BOUNDARY EMISSIVITY   =   6.000E-01  0.000E+00  0.000E+00
0                             BOUNDARY REFLECTIVITY =   4.000E-01  0.000E+00  0.000E+00
0                              SURFACE REFLECTIVITY = 
 HIRAC    CNTNM    EMISS     PLOT     IATM      IOD    XSECT     ISPD     IBRD
    1        1        1        1        1        0        0        0        0





0*********** BOUNDARY PROPERTIES ***********
0 TBOUND   =     290.0000     BOUNDARY EMISSIVITY   =   6.000E-01  0.000E+00  0.000E+00
0                             BOUNDARY REFLECTIVITY =   4.000E-01  0.000E+00  0.000E+00
0                              SURFACE REFLECTIVITY = 
1                    *****PROGRAM LBLATM*****                              



 CONTROL CARD 3.1: MODEL AND OPTIONS 

          MODEL   =     6
          ITYPE   =     2
          IBMAX   =     0
          n_zero  =     1
          NOPRNT  =     1
          NMOL    =    22
          IPUNCH  =     1
          IFXTYP  =     0
          MUNITS  =     0
          RE      =      0.000 KM
          HSPACE  =      0.000 KM
          VBAR    =      0.000 CM-1
          REF_LAT =     45.000 DEG



 CONTROL CARD 3.1 PARAMETERS WITH DEFAULTS:

          MODEL   =     6
          ITYPE   =     2
          IBMAX   =     0
          n_zero  =     1
          NOPRNT  =     1
          NMOL    =    22
          IPUNCH  =     1
          IFXTYP  =     0
          MUNITS  =     0
          RE      =   6371.230 KM
          HSPACE  =    100.000 KM
          VBAR    =      0.000 CM-1
          REF_LAT =     45.000 DEG



 SLANT PATH SELECTED, ITYPE =     2



 CONTROL CARD 3.2:  SLANT PATH PARAMETERS

          H1      =    30.000000 KM
          H2      =     0.000000 KM
          ANGLE   =   180.000000 DEG
          RANGE   =     0.000000 KM
          BETA    =     0.000000 DEG
          LEN     =          0



 AUTOLAYERING SELECTED

          AVTRAT    =     1.50
          TDIFF1    =     3.00
          TDIFF2    =     3.00
          ALTD1     =     0.00
          ALTD2     =   100.00
    - Using LOWTRAN6 refractive index -
1ATMOSPHERIC PROFILE SELECTED IS: M =   6     U. S. STANDARD,  1976   


 CASE 2A: GIVEN H1, H2, ANGLE


 EITHER A SHORT PATH (LEN=0) OR A LONG PATH THROUGH A TANGENT HEIGHT (LEN=1) IS POSSIBLE: LEN =   0



 SLANT PATH PARAMETERS IN STANDARD FORM

          H1         =    30.000000 KM
          H2         =     0.000000 KM
          ANGLE      =   180.000000 DEG
          sin(ANGLE) =     0.000000
          PHI        =     0.000000 DEG
          sin(PHI)   =     0.000000
          HMIN       =     0.000000 KM
          LEN        =          0



 LBLRTM LAYER BOUNDARIES PRODUCED BY THE AUTOMATIC LAYERING ROUTINE AUTLAY
 THE USER SHOULD EXAMINE THESE BOUNDARIES AND MODIFY THEM IF APPROPRIATE
 THE FOLLOWING PARAMETERS ARE USED:

          AVTRAT    =     1.50       = MAX RATIO OF VOIGT WIDTHS
          TDIFF1    =     3.00       = MAX TEMP DIFF AT   0. KM
          TDIFF2    =     3.00       = MAX TEMP DIFF AT  30. KM
          ALZERO    =     0.040 CM-1 = AVERAGE LORENTZ WIDTH AT STP
          AVMWT     =    36.00       = AVERAGE  MOLECULAR WEIGHT
          VBAR      =     0.00  CM-1 = AVERAGE WAVENUMBER


    I      Z         P         T      LORENTZ   DOPPLER     ZETA     VOIGT     VOIGT     TEMP
          (KM)      (MB)      (K)      (CM-1)    (CM-1)              (CM-1)    RATIO     DIFF (K)

    1     0.000  1013.00000   288.20  0.04053   0.00000     1.000   0.04053      1.04       2.6
    2     0.400   965.67479   285.60  0.03881   0.00000     1.000   0.03881      1.04       2.6
    3     0.800   920.56051   283.00  0.03717   0.00000     1.000   0.03717      1.04       2.6
    4     1.200   877.00865   280.40  0.03557   0.00000     1.000   0.03557      1.05       2.6
    5     1.600   834.99813   277.80  0.03403   0.00000     1.000   0.03403      1.05       2.6
    6     2.000   795.00000   275.20  0.03255   0.00000     1.000   0.03255      1.05       2.6
    7     2.400   756.06135   272.60  0.03110   0.00000     1.000   0.03110      1.05       2.6
    8     2.800   719.02990   270.00  0.02972   0.00000     1.000   0.02972      1.05       2.6
    9     3.200   683.39883   267.40  0.02838   0.00000     1.000   0.02838      1.05       2.6
   10     3.600   649.14075   264.80  0.02709   0.00000     1.000   0.02709      1.05       2.6
   11     4.000   616.60000   262.20  0.02586   0.00000     1.000   0.02586      1.05       2.6
   12     4.400   584.95222   259.60  0.02466   0.00000     1.000   0.02466      1.05       2.6
   13     4.800   554.92880   257.00  0.02351   0.00000     1.000   0.02351      1.05       2.6
   14     5.200   526.09207   254.40  0.02240   0.00000     1.000   0.02240      1.05       2.6
   15     5.600   498.41817   251.80  0.02133   0.00000     1.000   0.02133      1.05       2.6
   16     6.000   472.20000   249.20  0.02032   0.00000     1.000   0.02032      1.05       2.6
   17     6.400   446.73973   246.60  0.01932   0.00000     1.000   0.01932      1.05       2.6
   18     6.800   422.65224   244.00  0.01838   0.00000     1.000   0.01838      1.05       2.6
   19     7.200   399.54885   241.40  0.01747   0.00000     1.000   0.01747      1.05       2.6
   20     7.600   377.41114   238.80  0.01659   0.00000     1.000   0.01659      1.05       2.6
   21     8.000   356.50000   236.20  0.01575   0.00000     1.000   0.01575      1.05       2.6
   22     8.400   336.24513   233.60  0.01494   0.00000     1.000   0.01494      1.05       2.6
   23     8.800   317.14106   231.00  0.01417   0.00000     1.000   0.01417      1.06       2.6
   24     9.200   298.87511   228.42  0.01343   0.00000     1.000   0.01343      1.06       2.6
   25     9.600   281.42833   225.86  0.01272   0.00000     1.000   0.01272      1.06       2.6
   26    10.000   265.00000   223.30  0.01204   0.00000     1.000   0.01204      1.06       2.6
   27    10.400   249.09090   220.70  0.01139   0.00000     1.000   0.01139      1.06       2.6
   28    10.800   234.13690   218.10  0.01077   0.00000     1.000   0.01077      1.50       1.4
   29    13.400   155.70360   216.70  0.00718   0.00000     1.000   0.00718      1.48       0.0
   30    15.900   105.13825   216.70  0.00485   0.00000     1.000   0.00485      1.48       0.0
   31    18.400    71.05040   216.70  0.00328   0.00000     1.000   0.00328      1.48       0.8
   32    20.900    48.03492   217.51  0.00221   0.00000     1.000   0.00221      1.48       2.5
   33    23.400    32.59807   220.00  0.00149   0.00000     1.000   0.00149      1.50       2.6
   34    26.000    21.89479   222.56  0.00100   0.00000     1.000   0.00100      1.49       2.5
   35    28.600    14.77366   225.10  0.00067   0.00000     1.000   0.00067      1.24       1.4
   36    30.000    11.97000   226.50  0.00054   0.00000     1.000   0.00054      0.00       0.0
1CALCULATION OF THE REFRACTED PATH THROUGH THE ATMOSPHERE


    I        ALTITUDE        THETA   DRANGE   RANGE     DBETA   BETA       PHI     DBEND  BENDING    PBAR     TBAR    RHOBAR
          FROM       TO
          (KM)      (KM)     (DEG)    (KM)     (KM)     (DEG)   (DEG)     (DEG)    (DEG)   (DEG)     (MB)      (K)  (MOL CM-3)

             H2 TO H1

    1     0.000     0.400    0.000    0.400    0.400    0.000    0.000  180.000    0.000    0.000  989.302  286.906 2.50E+19
    2     0.400     0.800    0.000    0.400    0.800    0.000    0.000  180.000    0.000    0.000  943.083  284.306 2.40E+19
    3     0.800     1.000    0.000    0.200    1.000    0.000    0.000  180.000    0.000    0.000  909.672  282.352 2.33E+19
    4     1.000     1.200    0.000    0.200    1.200    0.000    0.000  180.000    0.000    0.000  887.896  281.052 2.29E+19
    5     1.200     1.600    0.000    0.400    1.600    0.000    0.000  180.000    0.000    0.000  855.971  279.107 2.22E+19
    6     1.600     2.000    0.000    0.400    2.000    0.000    0.000  180.000    0.000    0.000  814.968  276.507 2.13E+19
    7     2.000     2.400    0.000    0.400    2.400    0.000    0.000  180.000    0.000    0.000  775.500  273.907 2.05E+19
    8     2.400     2.800    0.000    0.400    2.800    0.000    0.000  180.000    0.000    0.000  737.516  271.307 1.97E+19
    9     2.800     3.000    0.000    0.200    3.000    0.000    0.000  180.000    0.000    0.000  710.108  269.352 1.91E+19
   10     3.000     3.200    0.000    0.200    3.200    0.000    0.000  180.000    0.000    0.000  692.292  268.052 1.87E+19
   11     3.200     3.600    0.000    0.400    3.600    0.000    0.000  180.000    0.000    0.000  666.242  266.107 1.81E+19
   12     3.600     4.000    0.000    0.400    4.000    0.000    0.000  180.000    0.000    0.000  632.844  263.507 1.74E+19
   13     4.000     4.400    0.000    0.400    4.400    0.000    0.000  180.000    0.000    0.000  600.750  260.907 1.67E+19
   14     4.400     4.800    0.000    0.400    4.800    0.000    0.000  180.000    0.000    0.000  569.915  258.307 1.60E+19
   15     4.800     5.000    0.000    0.200    5.000    0.000    0.000  180.000    0.000    0.000  547.708  256.352 1.55E+19
   16     5.000     5.200    0.000    0.200    5.200    0.000    0.000  180.000    0.000    0.000  533.290  255.052 1.51E+19
   17     5.200     5.600    0.000    0.400    5.600    0.000    0.000  180.000    0.000    0.000  512.231  253.107 1.47E+19
   18     5.600     6.000    0.000    0.400    6.000    0.000    0.000  180.000    0.000    0.000  485.286  250.507 1.40E+19
   19     6.000     6.400    0.000    0.400    6.400    0.000    0.000  180.000    0.000    0.000  459.448  247.907 1.34E+19
   20     6.400     6.800    0.000    0.400    6.800    0.000    0.000  180.000    0.000    0.000  434.675  245.307 1.28E+19
   21     6.800     7.000    0.000    0.200    7.000    0.000    0.000  180.000    0.000    0.000  416.871  243.352 1.24E+19
   22     7.000     7.200    0.000    0.200    7.200    0.000    0.000  180.000    0.000    0.000  405.319  242.052 1.21E+19
   23     7.200     7.600    0.000    0.400    7.600    0.000    0.000  180.000    0.000    0.000  388.460  240.108 1.17E+19
   24     7.600     8.000    0.000    0.400    8.000    0.000    0.000  180.000    0.000    0.000  366.936  237.508 1.12E+19
   25     8.000     8.400    0.000    0.400    8.400    0.000    0.000  180.000    0.000    0.000  346.354  234.908 1.07E+19
   26     8.400     8.800    0.000    0.400    8.800    0.000    0.000  180.000    0.000    0.000  326.675  232.308 1.02E+19
   27     8.800     9.000    0.000    0.200    9.000    0.000    0.000  180.000    0.000    0.000  312.566  230.352 9.83E+18
   28     9.000     9.200    0.000    0.200    9.200    0.000    0.000  180.000    0.000    0.000  303.433  229.062 9.59E+18
   29     9.200     9.600    0.000    0.400    9.600    0.000    0.000  180.000    0.000    0.000  290.135  227.148 9.25E+18
   30     9.600    10.000    0.000    0.400   10.000    0.000    0.000  180.000    0.000    0.000  273.199  224.588 8.81E+18
   31    10.000    10.400    0.000    0.400   10.400    0.000    0.000  180.000    0.000    0.000  257.030  222.008 8.38E+18
   32    10.400    10.800    0.000    0.400   10.800    0.000    0.000  180.000    0.000    0.000  241.599  219.408 7.97E+18
   33    10.800    11.000    0.000    0.200   11.000    0.000    0.000  180.000    0.000    0.000  230.565  217.452 7.68E+18
   34    11.000    12.000    0.000    1.000   12.000    0.000    0.000  180.000    0.000    0.000  210.499  216.751 7.02E+18
   35    12.000    13.000    0.000    1.000   13.000    0.000    0.000  180.000    0.000    0.000  179.900  216.700 6.00E+18
   36    13.000    13.400    0.000    0.400   13.400    0.000    0.000  180.000    0.000    0.000  160.752  216.700 5.37E+18
   37    13.400    14.000    0.000    0.600   14.000    0.000    0.000  180.000    0.000    0.000  148.702  216.700 4.97E+18
   38    14.000    15.000    0.000    1.000   15.000    0.000    0.000  180.000    0.000    0.000  131.400  216.700 4.38E+18
   39    15.000    15.900    0.000    0.900   15.900    0.000    0.000  180.000    0.000    0.000  113.119  216.700 3.77E+18
   40    15.900    16.000    0.000    0.100   16.000    0.000    0.000  180.000    0.000    0.000  104.319  216.700 3.49E+18
   41    16.000    17.000    0.000    1.000   17.000    0.000    0.000  180.000    0.000    0.000   96.000  216.700 3.20E+18
   42    17.000    18.000    0.000    1.000   18.000    0.000    0.000  180.000    0.000    0.000   82.075  216.700 2.74E+18
   43    18.000    18.400    0.000    0.400   18.400    0.000    0.000  180.000    0.000    0.000   73.350  216.700 2.45E+18
   44    18.400    19.000    0.000    0.600   19.000    0.000    0.000  180.000    0.000    0.000   67.860  216.700 2.27E+18
   45    19.000    20.000    0.000    1.000   20.000    0.000    0.000  180.000    0.000    0.000   59.980  216.700 2.00E+18
   46    20.000    20.900    0.000    0.900   20.900    0.000    0.000  180.000    0.000    0.000   51.665  217.095 1.72E+18
   47    20.900    21.000    0.000    0.100   21.000    0.000    0.000  180.000    0.000    0.000   47.662  217.555 1.59E+18
   48    21.000    22.000    0.000    1.000   22.000    0.000    0.000  180.000    0.000    0.000   43.883  218.086 1.45E+18
   49    22.000    23.000    0.000    1.000   23.000    0.000    0.000  180.000    0.000    0.000   37.572  219.086 1.24E+18
   50    23.000    23.400    0.000    0.400   23.400    0.000    0.000  180.000    0.000    0.000   33.634  219.798 1.11E+18
   51    23.400    24.000    0.000    0.600   24.000    0.000    0.000  180.000    0.000    0.000   31.160  220.295 1.02E+18
   52    24.000    25.000    0.000    1.000   25.000    0.000    0.000  180.000    0.000    0.000   27.607  221.086 9.03E+17
   53    25.000    26.000    0.000    1.000   26.000    0.000    0.000  180.000    0.000    0.000   23.694  222.067 7.71E+17
   54    26.000    27.500    0.000    1.500   27.500    0.000    0.000  180.000    0.000    0.000   19.665  223.251 6.35E+17
   55    27.500    28.600    0.000    1.100   28.600    0.000    0.000  180.000    0.000    0.000   16.103  224.534 5.18E+17
   56    28.600    30.000    0.000    1.400   30.000    0.000    0.000  180.000    0.000    0.000   13.373  225.774 4.27E+17
1INTEGRATED ABSORBER AMOUNTS BY LAYER


    I  LAYER BOUNDARIES                               INTEGRATED AMOUNTS (MOL CM-2)
          FROM       TO     AIR       H2O       CO2        O3       N2O        CO       CH4        O2        NO   
          (KM)      (KM)                SO2       NO2       NH3      HNO3        OH        HF       HCL       HBR   
                                         HI       CLO       OCS      H2CO      HOCL        N2   
    1     0.000     0.400 9.988E+23 7.325E+21 3.275E+20 2.691E+16 3.175E+17 1.478E+17 1.687E+18 2.074E+23 2.977E+14
                                    2.924E+14 2.282E+13 4.962E+14 5.139E+13 4.366E+10 9.923E+09 9.374E+14 1.687E+12
                                    2.977E+12 9.923E+09 5.934E+14 2.037E+15 8.147E+12 7.750E+23
    2     0.400     0.800 9.609E+23 6.397E+21 3.152E+20 2.693E+16 3.057E+17 1.404E+17 1.624E+18 1.997E+23 2.866E+14
                                    2.715E+14 2.197E+13 4.776E+14 5.307E+13 4.203E+10 9.553E+09 8.039E+14 1.624E+12
                                    2.866E+12 9.553E+09 5.674E+14 1.420E+15 8.913E+12 7.461E+23
    3     0.800     1.000 4.667E+23 2.888E+21 1.532E+20 1.347E+16 1.485E+17 6.754E+16 7.891E+17 9.702E+22 1.393E+14
                                    1.284E+14 1.068E+13 2.321E+14 2.718E+13 2.042E+10 4.642E+09 3.580E+14 7.891E+11
                                    1.393E+12 4.642E+09 2.743E+14 5.392E+14 4.766E+12 3.625E+23
    4     1.000     1.200 4.576E+23 2.691E+21 1.503E+20 1.348E+16 1.457E+17 6.579E+16 7.740E+17 9.516E+22 1.366E+14
                                    1.229E+14 1.047E+13 2.259E+14 2.755E+13 2.003E+10 4.648E+09 3.314E+14 7.740E+11
                                    1.366E+12 4.553E+09 2.682E+14 4.428E+14 4.895E+12 3.556E+23
    5     1.200     1.600 8.884E+23 4.822E+21 2.918E+20 2.697E+16 2.830E+17 1.264E+17 1.503E+18 1.848E+23 2.653E+14
                                    2.283E+14 2.034E+13 4.288E+14 5.598E+13 3.891E+10 9.606E+09 5.906E+14 1.503E+12
                                    2.653E+12 8.843E+09 5.182E+14 6.458E+14 9.915E+12 6.906E+23
    6     1.600     2.000 8.538E+23 4.160E+21 2.806E+20 2.698E+16 2.721E+17 1.198E+17 1.445E+18 1.777E+23 2.551E+14
                                    2.068E+14 1.956E+13 3.998E+14 5.717E+13 3.741E+10 1.003E+10 5.059E+14 1.445E+12
                                    2.551E+12 8.503E+09 4.949E+14 4.206E+14 1.009E+13 6.641E+23
    7     2.000     2.400 8.201E+23 3.516E+21 2.697E+20 2.658E+16 2.615E+17 1.135E+17 1.389E+18 1.708E+23 2.452E+14
                                    1.848E+14 1.880E+13 3.639E+14 5.815E+13 3.596E+10 1.105E+10 4.335E+14 1.389E+12
                                    2.452E+12 8.172E+09 4.723E+14 2.951E+14 9.837E+12 6.382E+23
    8     2.400     2.800 7.874E+23 2.907E+21 2.590E+20 2.579E+16 2.512E+17 1.075E+17 1.334E+18 1.641E+23 2.355E+14
                                    1.628E+14 1.805E+13 3.230E+14 5.889E+13 3.454E+10 1.282E+10 3.716E+14 1.334E+12
                                    2.355E+12 7.850E+09 4.506E+14 2.251E+14 9.196E+12 6.131E+23
    9     2.800     3.000 3.819E+23 1.259E+21 1.257E+20 1.260E+16 1.219E+17 5.156E+16 6.474E+17 7.959E+22 1.142E+14
                                    7.395E+13 8.759E+12 1.476E+14 2.973E+13 1.676E+10 7.158E+09 1.654E+14 6.474E+11
                                    1.142E+12 3.808E+09 2.174E+14 9.164E+13 4.371E+12 2.974E+23
   10     3.000     3.200 3.741E+23 1.143E+21 1.231E+20 1.241E+16 1.194E+17 5.020E+16 6.343E+17 7.799E+22 1.119E+14
                                    6.907E+13 8.582E+12 1.379E+14 2.985E+13 1.642E+10 7.713E+09 1.532E+14 6.343E+11
                                    1.119E+12 3.731E+09 2.124E+14 8.075E+13 4.190E+12 2.914E+23
   11     3.200     3.600 7.252E+23 1.974E+21 2.388E+20 2.421E+16 2.315E+17 9.654E+16 1.230E+18 1.512E+23 2.171E+14
                                    1.238E+14 1.664E+13 2.463E+14 5.991E+13 3.184E+10 1.728E+10 2.733E+14 1.230E+12
                                    2.171E+12 7.236E+09 4.101E+14 1.357E+14 7.767E+12 5.651E+23
   12     3.600     4.000 6.957E+23 1.622E+21 2.291E+20 2.342E+16 2.222E+17 9.161E+16 1.180E+18 1.451E+23 2.083E+14
                                    1.069E+14 1.597E+13 2.116E+14 6.019E+13 3.055E+10 2.008E+10 2.345E+14 1.180E+12
                                    2.083E+12 6.943E+09 3.913E+14 1.073E+14 7.016E+12 5.423E+23
   13     4.000     4.400 6.670E+23 1.320E+21 2.198E+20 2.304E+16 2.131E+17 8.725E+16 1.132E+18 1.392E+23 1.998E+14
                                    9.323E+13 1.532E+13 1.792E+14 6.019E+13 2.930E+10 2.377E+10 2.007E+14 1.132E+12
                                    1.998E+12 6.660E+09 3.733E+14 8.727E+13 6.272E+12 5.201E+23
   14     4.400     4.800 6.391E+23 1.063E+21 2.107E+20 2.305E+16 2.043E+17 8.341E+16 1.085E+18 1.334E+23 1.915E+14
                                    8.208E+13 1.468E+13 1.497E+14 5.993E+13 2.809E+10 2.864E+10 1.714E+14 1.085E+12
                                    1.915E+12 6.384E+09 3.561E+14 7.313E+13 5.546E+12 4.986E+23
   15     4.800     5.000 3.095E+23 4.514E+20 1.020E+20 1.153E+16 9.895E+16 4.032E+16 5.257E+17 6.463E+22 9.277E+13
                                    3.728E+13 7.112E+12 6.532E+13 2.987E+13 1.361E+10 1.645E+10 7.609E+13 5.257E+11
                                    9.277E+11 3.092E+09 1.718E+14 3.199E+13 2.528E+12 2.415E+23
   16     5.000     5.200 3.029E+23 4.059E+20 9.988E+19 1.150E+16 9.685E+16 3.939E+16 5.145E+17 6.326E+22 9.080E+13
